Wav (nm)	CalR)	Wav (nm)	MeasuredR	Torg (nm)	Tmir (nm)	
Wavelength (nm) - Plot 0	Reflectance - Plot 0	Wavelength (nm) - ÇúÏß 1	Reflectance - ÇúÏß 1	
380.00	0.57	380.79	0.56	
382.00	0.56	381.15	0.55	
384.00	0.56	381.52	0.62	
386.00	0.55	381.88	0.58	
388.00	0.55	382.25	0.54	
390.00	0.55	382.61	0.58	
392.00	0.55	382.98	0.58	
394.00	0.55	383.34	0.62	
396.00	0.55	383.71	0.62	
398.00	0.56	384.07	0.55	
400.00	0.56	384.44	0.62	
402.00	0.56	384.80	0.61	
404.00	0.56	385.17	0.60	
406.00	0.56	385.53	0.57	
408.00	0.56	385.90	0.57	
410.00	0.56	386.26	0.55	
412.00	0.55	386.63	0.60	
414.00	0.55	386.99	0.57	
416.00	0.55	387.36	0.54	
418.00	0.54	387.72	0.59	
420.00	0.53	388.08	0.58	
422.00	0.52	388.45	0.54	
424.00	0.51	388.81	0.58	
426.00	0.50	389.18	0.53	
428.00	0.48	389.54	0.60	
430.00	0.46	389.91	0.57	
432.00	0.45	390.27	0.52	
434.00	0.43	390.63	0.55	
436.00	0.41	391.00	0.57	
438.00	0.38	391.36	0.56	
440.00	0.36	391.73	0.53	
442.00	0.34	392.09	0.52	
444.00	0.31	392.46	0.56	
446.00	0.28	392.82	0.55	
448.00	0.26	393.18	0.60	
450.00	0.23	393.55	0.58	
452.00	0.21	393.91	0.56	
454.00	0.18	394.27	0.51	
456.00	0.16	394.64	0.58	
458.00	0.14	395.00	0.54	
460.00	0.13	395.37	0.56	
462.00	0.12	395.73	0.55	
464.00	0.11	396.09	0.53	
466.00	0.11	396.46	0.51	
468.00	0.12	396.82	0.54	
470.00	0.12	397.18	0.56	
472.00	0.14	397.55	0.50	
474.00	0.15	397.91	0.55	
476.00	0.17	398.27	0.56	
478.00	0.19	398.64	0.53	
480.00	0.22	399.00	0.56	
482.00	0.24	399.36	0.58	
484.00	0.27	399.73	0.55	
486.00	0.29	400.09	0.53	
488.00	0.32	400.45	0.56	
490.00	0.34	400.82	0.51	
492.00	0.37	401.18	0.50	
494.00	0.40	401.54	0.54	
496.00	0.42	401.91	0.53	
498.00	0.45	402.27	0.53	
500.00	0.47	402.63	0.53	
502.00	0.49	403.00	0.50	
504.00	0.51	403.36	0.56	
506.00	0.53	403.72	0.53	
508.00	0.55	404.08	0.58	
510.00	0.57	404.45	0.57	
512.00	0.59	404.81	0.55	
514.00	0.61	405.17	0.54	
516.00	0.62	405.54	0.55	
518.00	0.64	405.90	0.55	
520.00	0.65	406.26	0.55	
522.00	0.66	406.62	0.57	
524.00	0.68	406.99	0.53	
526.00	0.69	407.35	0.54	
528.00	0.70	407.71	0.54	
530.00	0.71	408.07	0.51	
532.00	0.72	408.44	0.54	
534.00	0.73	408.80	0.55	
536.00	0.73	409.16	0.52	
538.00	0.74	409.52	0.55	
540.00	0.75	409.88	0.53	
542.00	0.76	410.25	0.51	
544.00	0.77	410.61	0.55	
546.00	0.77	410.97	0.53	
548.00	0.78	411.33	0.58	
550.00	0.79	411.70	0.54	
552.00	0.80	412.06	0.54	
554.00	0.80	412.42	0.56	
556.00	0.81	412.78	0.54	
558.00	0.81	413.14	0.55	
560.00	0.82	413.51	0.54	
562.00	0.83	413.87	0.53	
564.00	0.83	414.23	0.55	
566.00	0.83	414.59	0.53	
568.00	0.84	414.95	0.56	
570.00	0.84	415.31	0.51	
572.00	0.84	415.68	0.52	
574.00	0.85	416.04	0.53	
576.00	0.85	416.40	0.56	
578.00	0.85	416.76	0.53	
580.00	0.86	417.12	0.53	
582.00	0.86	417.48	0.55	
584.00	0.86	417.84	0.54	
586.00	0.87	418.21	0.55	
588.00	0.87	418.57	0.55	
590.00	0.87	418.93	0.53	
592.00	0.87	419.29	0.54	
594.00	0.87	419.65	0.52	
596.00	0.88	420.01	0.54	
598.00	0.88	420.37	0.54	
600.00	0.88	420.73	0.54	
602.00	0.88	421.10	0.54	
604.00	0.88	421.46	0.55	
606.00	0.88	421.82	0.53	
608.00	0.88	422.18	0.52	
610.00	0.89	422.54	0.54	
612.00	0.89	422.90	0.53	
614.00	0.89	423.26	0.51	
616.00	0.89	423.62	0.53	
618.00	0.89	423.98	0.52	
620.00	0.89	424.34	0.54	
622.00	0.89	424.70	0.52	
624.00	0.89	425.06	0.52	
626.00	0.90	425.43	0.55	
628.00	0.90	425.79	0.54	
630.00	0.90	426.15	0.55	
632.00	0.90	426.51	0.52	
634.00	0.90	426.87	0.54	
636.00	0.90	427.23	0.52	
638.00	0.90	427.59	0.50	
640.00	0.90	427.95	0.52	
642.00	0.91	428.31	0.50	
644.00	0.91	428.67	0.53	
646.00	0.91	429.03	0.52	
648.00	0.91	429.39	0.52	
650.00	0.91	429.75	0.51	
652.00	0.91	430.11	0.51	
654.00	0.91	430.47	0.53	
656.00	0.91	430.83	0.54	
658.00	0.91	431.19	0.50	
660.00	0.91	431.55	0.52	
662.00	0.92	431.91	0.52	
664.00	0.92	432.27	0.52	
666.00	0.92	432.63	0.51	
668.00	0.92	432.99	0.54	
670.00	0.92	433.35	0.51	
672.00	0.92	433.71	0.51	
674.00	0.92	434.07	0.51	
676.00	0.92	434.43	0.50	
678.00	0.92	434.79	0.51	
680.00	0.92	435.15	0.48	
682.00	0.92	435.51	0.48	
684.00	0.93	435.87	0.48	
686.00	0.93	436.23	0.49	
688.00	0.93	436.59	0.49	
690.00	0.93	436.95	0.47	
692.00	0.93	437.30	0.47	
694.00	0.93	437.66	0.46	
696.00	0.93	438.02	0.47	
698.00	0.93	438.38	0.48	
700.00	0.93	438.74	0.48	
702.00	0.93	439.10	0.44	
704.00	0.93	439.46	0.45	
706.00	0.93	439.82	0.47	
708.00	0.93	440.18	0.46	
710.00	0.93	440.54	0.46	
712.00	0.93	440.90	0.45	
714.00	0.93	441.25	0.43	
716.00	0.93	441.61	0.45	
718.00	0.94	441.97	0.44	
720.00	0.94	442.33	0.46	
722.00	0.94	442.69	0.43	
724.00	0.94	443.05	0.43	
726.00	0.94	443.41	0.41	
728.00	0.94	443.77	0.43	
730.00	0.94	444.12	0.41	
732.00	0.94	444.48	0.41	
734.00	0.94	444.84	0.39	
736.00	0.94	445.20	0.41	
738.00	0.94	445.56	0.39	
740.00	0.94	445.92	0.40	
742.00	0.94	446.28	0.37	
744.00	0.94	446.63	0.38	
746.00	0.94	446.99	0.37	
748.00	0.94	447.35	0.37	
750.00	0.94	447.71	0.35	
752.00	0.94	448.07	0.36	
754.00	0.94	448.43	0.35	
756.00	0.95	448.78	0.35	
758.00	0.95	449.14	0.32	
760.00	0.95	449.50	0.34	
762.00	0.95	449.86	0.33	
764.00	0.95	450.22	0.33	
766.00	0.95	450.57	0.31	
768.00	0.95	450.93	0.30	
770.00	0.95	451.29	0.30	
772.00	0.95	451.65	0.29	
774.00	0.95	452.00	0.27	
776.00	0.95	452.36	0.27	
778.00	0.95	452.72	0.26	
780.00	0.95	453.08	0.26	
		453.44	0.27	
		453.79	0.25	
		454.15	0.24	
		454.51	0.23	
		454.87	0.23	
		455.22	0.22	
		455.58	0.21	
		455.94	0.21	
		456.29	0.21	
		456.65	0.19	
		457.01	0.19	
		457.37	0.18	
		457.72	0.17	
		458.08	0.16	
		458.44	0.16	
		458.79	0.15	
		459.15	0.15	
		459.51	0.14	
		459.87	0.14	
		460.22	0.13	
		460.58	0.14	
		460.94	0.12	
		461.29	0.13	
		461.65	0.12	
		462.01	0.11	
		462.36	0.12	
		462.72	0.12	
		463.08	0.10	
		463.43	0.11	
		463.79	0.11	
		464.15	0.12	
		464.50	0.11	
		464.86	0.12	
		465.21	0.11	
		465.57	0.11	
		465.93	0.11	
		466.28	0.11	
		466.64	0.12	
		467.00	0.12	
		467.35	0.12	
		467.71	0.12	
		468.06	0.12	
		468.42	0.12	
		468.78	0.13	
		469.13	0.13	
		469.49	0.14	
		469.84	0.13	
		470.20	0.14	
		470.55	0.13	
		470.91	0.15	
		471.27	0.16	
		471.62	0.16	
		471.98	0.16	
		472.33	0.16	
		472.69	0.17	
		473.04	0.18	
		473.40	0.18	
		473.75	0.18	
		474.11	0.18	
		474.46	0.19	
		474.82	0.19	
		475.18	0.20	
		475.53	0.20	
		475.89	0.22	
		476.24	0.22	
		476.60	0.23	
		476.95	0.24	
		477.31	0.23	
		477.66	0.23	
		478.02	0.24	
		478.37	0.25	
		478.73	0.26	
		479.08	0.26	
		479.43	0.27	
		479.79	0.27	
		480.14	0.29	
		480.50	0.29	
		480.85	0.30	
		481.21	0.30	
		481.56	0.30	
		481.92	0.31	
		482.27	0.32	
		482.63	0.32	
		482.98	0.32	
		483.33	0.32	
		483.69	0.34	
		484.04	0.34	
		484.40	0.34	
		484.75	0.35	
		485.10	0.36	
		485.46	0.37	
		485.81	0.37	
		486.17	0.37	
		486.52	0.38	
		486.87	0.38	
		487.23	0.40	
		487.58	0.40	
		487.94	0.40	
		488.29	0.41	
		488.64	0.41	
		489.00	0.42	
		489.35	0.42	
		489.70	0.43	
		490.06	0.44	
		490.41	0.44	
		490.76	0.44	
		491.12	0.45	
		491.47	0.45	
		491.83	0.46	
		492.18	0.46	
		492.53	0.47	
		492.88	0.47	
		493.24	0.47	
		493.59	0.49	
		493.94	0.49	
		494.30	0.50	
		494.65	0.49	
		495.00	0.50	
		495.36	0.51	
		495.71	0.51	
		496.06	0.52	
		496.41	0.52	
		496.77	0.52	
		497.12	0.53	
		497.47	0.52	
		497.83	0.54	
		498.18	0.53	
		498.53	0.54	
		498.88	0.54	
		499.24	0.55	
		499.59	0.56	
		499.94	0.55	
		500.29	0.57	
		500.65	0.57	
		501.00	0.56	
		501.35	0.58	
		501.70	0.58	
		502.05	0.58	
		502.41	0.58	
		502.76	0.59	
		503.11	0.59	
		503.46	0.60	
		503.81	0.60	
		504.17	0.60	
		504.52	0.61	
		504.87	0.60	
		505.22	0.62	
		505.57	0.61	
		505.93	0.61	
		506.28	0.62	
		506.63	0.62	
		506.98	0.63	
		507.33	0.64	
		507.68	0.64	
		508.03	0.65	
		508.39	0.65	
		508.74	0.64	
		509.09	0.65	
		509.44	0.66	
		509.79	0.66	
		510.14	0.65	
		510.49	0.66	
		510.84	0.67	
		511.20	0.67	
		511.55	0.67	
		511.90	0.67	
		512.25	0.68	
		512.60	0.68	
		512.95	0.69	
		513.30	0.68	
		513.65	0.68	
		514.00	0.68	
		514.35	0.70	
		514.70	0.69	
		515.06	0.70	
		515.41	0.70	
		515.76	0.71	
		516.11	0.70	
		516.46	0.71	
		516.81	0.71	
		517.16	0.72	
		517.51	0.72	
		517.86	0.72	
		518.21	0.73	
		518.56	0.72	
		518.91	0.72	
		519.26	0.73	
		519.61	0.73	
		519.96	0.74	
		520.31	0.74	
		520.66	0.73	
		521.01	0.74	
		521.36	0.75	
		521.71	0.74	
		522.06	0.76	
		522.41	0.76	
		522.76	0.76	
		523.11	0.76	
		523.46	0.76	
		523.81	0.77	
		524.16	0.76	
		524.51	0.77	
		524.86	0.78	
		525.21	0.77	
		525.56	0.78	
		525.91	0.78	
		526.25	0.78	
		526.60	0.79	
		526.95	0.79	
		527.30	0.79	
		527.65	0.79	
		528.00	0.80	
		528.35	0.80	
		528.70	0.80	
		529.05	0.80	
		529.40	0.81	
		529.75	0.81	
		530.09	0.80	
		530.44	0.81	
		530.79	0.81	
		531.14	0.81	
		531.49	0.81	
		531.84	0.81	
		532.19	0.82	
		532.54	0.82	
		532.88	0.83	
		533.23	0.83	
		533.58	0.83	
		533.93	0.82	
		534.28	0.84	
		534.63	0.83	
		534.97	0.83	
		535.32	0.84	
		535.67	0.83	
		536.02	0.84	
		536.37	0.83	
		536.71	0.84	
		537.06	0.83	
		537.41	0.85	
		537.76	0.84	
		538.11	0.84	
		538.45	0.85	
		538.80	0.84	
		539.15	0.85	
		539.50	0.85	
		539.85	0.85	
		540.19	0.86	
		540.54	0.86	
		540.89	0.85	
		541.24	0.85	
		541.58	0.86	
		541.93	0.86	
		542.28	0.86	
		542.63	0.86	
		542.97	0.86	
		543.32	0.86	
		543.67	0.87	
		544.02	0.87	
		544.36	0.88	
		544.71	0.88	
		545.06	0.87	
		545.40	0.87	
		545.75	0.88	
		546.10	0.88	
		546.44	0.88	
		546.79	0.88	
		547.14	0.89	
		547.48	0.88	
		547.83	0.88	
		548.18	0.89	
		548.52	0.89	
		548.87	0.89	
		549.22	0.89	
		549.56	0.89	
		549.91	0.89	
		550.26	0.89	
		550.60	0.90	
		550.95	0.90	
		551.30	0.90	
		551.64	0.90	
		551.99	0.89	
		552.34	0.90	
		552.68	0.90	
		553.03	0.90	
		553.37	0.90	
		553.72	0.90	
		554.07	0.90	
		554.41	0.91	
		554.76	0.91	
		555.10	0.91	
		555.45	0.91	
		555.80	0.91	
		556.14	0.92	
		556.49	0.91	
		556.83	0.91	
		557.18	0.91	
		557.52	0.91	
		557.87	0.91	
		558.21	0.91	
		558.56	0.91	
		558.91	0.92	
		559.25	0.91	
		559.60	0.92	
		559.94	0.92	
		560.29	0.92	
		560.63	0.93	
		560.98	0.92	
		561.32	0.92	
		561.67	0.92	
		562.01	0.92	
		562.36	0.92	
		562.70	0.93	
		563.05	0.92	
		563.39	0.93	
		563.74	0.93	
		564.08	0.92	
		564.43	0.93	
		564.77	0.93	
		565.11	0.93	
		565.46	0.93	
		565.80	0.93	
		566.15	0.93	
		566.49	0.93	
		566.84	0.94	
		567.18	0.94	
		567.53	0.93	
		567.87	0.94	
		568.21	0.94	
		568.56	0.94	
		568.90	0.94	
		569.25	0.94	
		569.59	0.94	
		569.94	0.94	
		570.28	0.94	
		570.62	0.94	
		570.97	0.94	
		571.31	0.94	
		571.65	0.95	
		572.00	0.94	
		572.34	0.95	
		572.69	0.95	
		573.03	0.95	
		573.37	0.94	
		573.72	0.95	
		574.06	0.95	
		574.40	0.95	
		574.75	0.95	
		575.09	0.95	
		575.43	0.95	
		575.78	0.95	
		576.12	0.95	
		576.46	0.95	
		576.81	0.95	
		577.15	0.95	
		577.49	0.95	
		577.84	0.95	
		578.18	0.95	
		578.52	0.95	
		578.86	0.95	
		579.21	0.95	
		579.55	0.95	
		579.89	0.95	
		580.24	0.96	
		580.58	0.95	
		580.92	0.96	
		581.26	0.96	
		581.61	0.96	
		581.95	0.95	
		582.29	0.95	
		582.63	0.95	
		582.98	0.95	
		583.32	0.95	
		583.66	0.95	
		584.00	0.95	
		584.35	0.95	
		584.69	0.96	
		585.03	0.95	
		585.37	0.96	
		585.71	0.96	
		586.06	0.95	
		586.40	0.96	
		586.74	0.96	
		587.08	0.95	
		587.42	0.95	
		587.77	0.96	
		588.11	0.96	
		588.45	0.95	
		588.79	0.96	
		589.13	0.95	
		589.47	0.96	
		589.81	0.95	
		590.16	0.96	
		590.50	0.96	
		590.84	0.96	
		591.18	0.96	
		591.52	0.96	
		591.86	0.96	
		592.20	0.96	
		592.55	0.96	
		592.89	0.96	
		593.23	0.96	
		593.57	0.96	
		593.91	0.96	
		594.25	0.96	
		594.59	0.96	
		594.93	0.96	
		595.27	0.96	
		595.61	0.96	
		595.95	0.96	
		596.30	0.96	
		596.64	0.96	
		596.98	0.96	
		597.32	0.96	
		597.66	0.96	
		598.00	0.96	
		598.34	0.96	
		598.68	0.96	
		599.02	0.96	
		599.36	0.96	
		599.70	0.96	
		600.04	0.96	
		600.38	0.96	
		600.72	0.96	
		601.06	0.96	
		601.40	0.97	
		601.74	0.96	
		602.08	0.96	
		602.42	0.96	
		602.76	0.96	
		603.10	0.96	
		603.44	0.96	
		603.78	0.96	
		604.12	0.97	
		604.46	0.96	
		604.80	0.96	
		605.14	0.96	
		605.48	0.96	
		605.82	0.96	
		606.16	0.96	
		606.50	0.96	
		606.84	0.96	
		607.17	0.97	
		607.51	0.96	
		607.85	0.96	
		608.19	0.96	
		608.53	0.96	
		608.87	0.97	
		609.21	0.96	
		609.55	0.96	
		609.89	0.96	
		610.23	0.96	
		610.56	0.96	
		610.90	0.97	
		611.24	0.96	
		611.58	0.97	
		611.92	0.97	
		612.26	0.96	
		612.60	0.97	
		612.94	0.96	
		613.27	0.96	
		613.61	0.97	
		613.95	0.97	
		614.29	0.97	
		614.63	0.97	
		614.97	0.97	
		615.30	0.97	
		615.64	0.97	
		615.98	0.97	
		616.32	0.97	
		616.66	0.97	
		616.99	0.97	
		617.33	0.97	
		617.67	0.97	
		618.01	0.96	
		618.35	0.96	
		618.68	0.97	
		619.02	0.97	
		619.36	0.97	
		619.70	0.97	
		620.03	0.97	
		620.37	0.97	
		620.71	0.97	
		621.05	0.97	
		621.38	0.97	
		621.72	0.97	
		622.06	0.97	
		622.40	0.97	
		622.73	0.97	
		623.07	0.97	
		623.41	0.97	
		623.75	0.97	
		624.08	0.97	
		624.42	0.97	
		624.76	0.97	
		625.09	0.97	
		625.43	0.97	
		625.77	0.97	
		626.10	0.97	
		626.44	0.97	
		626.78	0.97	
		627.11	0.97	
		627.45	0.97	
		627.79	0.97	
		628.12	0.97	
		628.46	0.97	
		628.80	0.97	
		629.13	0.97	
		629.47	0.97	
		629.81	0.97	
		630.14	0.97	
		630.48	0.97	
		630.81	0.97	
		631.15	0.97	
		631.49	0.97	
		631.82	0.97	
		632.16	0.97	
		632.49	0.97	
		632.83	0.97	
		633.17	0.97	
		633.50	0.97	
		633.84	0.97	
		634.17	0.97	
		634.51	0.97	
		634.84	0.97	
		635.18	0.97	
		635.52	0.97	
		635.85	0.97	
		636.19	0.97	
		636.52	0.97	
		636.86	0.96	
		637.19	0.97	
		637.53	0.97	
		637.86	0.97	
		638.20	0.97	
		638.53	0.97	
		638.87	0.97	
		639.20	0.97	
		639.54	0.97	
		639.87	0.97	
		640.21	0.97	
		640.54	0.97	
		640.88	0.97	
		641.21	0.97	
		641.55	0.97	
		641.88	0.97	
		642.22	0.97	
		642.55	0.97	
		642.89	0.97	
		643.22	0.97	
		643.56	0.96	
		643.89	0.97	
		644.22	0.97	
		644.56	0.97	
		644.89	0.97	
		645.23	0.96	
		645.56	0.97	
		645.90	0.97	
		646.23	0.97	
		646.56	0.97	
		646.90	0.97	
		647.23	0.97	
		647.57	0.97	
		647.90	0.97	
		648.23	0.97	
		648.57	0.97	
		648.90	0.97	
		649.23	0.97	
		649.57	0.97	
		649.90	0.97	
		650.24	0.97	
		650.57	0.96	
		650.90	0.97	
		651.24	0.97	
		651.57	0.97	
		651.90	0.97	
		652.24	0.97	
		652.57	0.97	
		652.90	0.97	
		653.23	0.97	
		653.57	0.97	
		653.90	0.97	
		654.23	0.97	
		654.57	0.97	
		654.90	0.98	
		655.23	0.98	
		655.57	1.00	
		655.90	0.99	
		656.23	0.98	
		656.56	0.98	
		656.90	0.97	
		657.23	0.98	
		657.56	0.97	
		657.89	0.98	
		658.23	0.97	
		658.56	0.97	
		658.89	0.97	
		659.22	0.97	
		659.56	0.96	
		659.89	0.97	
		660.22	0.97	
		660.55	0.97	
		660.88	0.96	
		661.22	0.97	
		661.55	0.97	
		661.88	0.97	
		662.21	0.96	
		662.54	0.96	
		662.88	0.97	
		663.21	0.97	
		663.54	0.96	
		663.87	0.96	
		664.20	0.97	
		664.53	0.96	
		664.87	0.97	
		665.20	0.96	
		665.53	0.97	
		665.86	0.96	
		666.19	0.96	
		666.52	0.96	
		666.85	0.96	
		667.19	0.96	
		667.52	0.97	
		667.85	0.96	
		668.18	0.96	
		668.51	0.96	
		668.84	0.96	
		669.17	0.96	
		669.50	0.96	
		669.83	0.97	
		670.16	0.96	
		670.49	0.96	
		670.83	0.97	
		671.16	0.97	
		671.49	0.96	
		671.82	0.97	
		672.15	0.97	
		672.48	0.97	
		672.81	0.97	
		673.14	0.97	
		673.47	0.97	
		673.80	0.96	
		674.13	0.97	
		674.46	0.97	
		674.79	0.97	
		675.12	0.96	
		675.45	0.97	
		675.78	0.96	
		676.11	0.96	
		676.44	0.96	
		676.77	0.96	
		677.10	0.96	
		677.43	0.97	
		677.76	0.96	
		678.09	0.97	
		678.42	0.96	
		678.75	0.96	
		679.08	0.97	
		679.41	0.96	
		679.74	0.96	
		680.07	0.96	
		680.40	0.96	
		680.73	0.96	
		681.05	0.97	
		681.38	0.96	
		681.71	0.96	
		682.04	0.96	
		682.37	0.96	
		682.70	0.96	
		683.03	0.96	
		683.36	0.96	
		683.69	0.96	
		684.02	0.96	
		684.34	0.96	
		684.67	0.95	
		685.00	0.96	
		685.33	0.96	
		685.66	0.96	
		685.99	0.96	
		686.32	0.96	
		686.64	0.95	
		686.97	0.97	
		687.30	0.96	
		687.63	0.96	
		687.96	0.95	
		688.29	0.96	
		688.61	0.96	
		688.94	0.96	
		689.27	0.96	
		689.60	0.95	
		689.93	0.96	
		690.25	0.96	
		690.58	0.96	
		690.91	0.96	
		691.24	0.96	
		691.57	0.96	
		691.89	0.96	
		692.22	0.96	
		692.55	0.96	
		692.88	0.95	
		693.20	0.96	
		693.53	0.96	
		693.86	0.95	
		694.19	0.95	
		694.51	0.96	
		694.84	0.95	
		695.17	0.97	
		695.50	0.95	
		695.82	0.96	
		696.15	0.95	
		696.48	0.95	
		696.80	0.95	
		697.13	0.95	
		697.46	0.95	
		697.78	0.95	
		698.11	0.95	
		698.44	0.96	
		698.76	0.96	
		699.09	0.95	
		699.42	0.96	
		699.74	0.95	
		700.07	0.95	
		700.40	0.95	
		700.72	0.95	
		701.05	0.95	
		701.38	0.96	
		701.70	0.95	
		702.03	0.95	
		702.36	0.96	
		702.68	0.95	
		703.01	0.94	
		703.33	0.96	
		703.66	0.96	
		703.99	0.95	
		704.31	0.95	
		704.64	0.96	
		704.96	0.95	
		705.29	0.94	
		705.61	0.95	
		705.94	0.95	
		706.27	0.96	
		706.59	0.95	
		706.92	0.96	
		707.24	0.96	
		707.57	0.95	
		707.89	0.96	
		708.22	0.95	
		708.54	0.95	
		708.87	0.95	
		709.19	0.95	
		709.52	0.95	
		709.85	0.95	
		710.17	0.95	
		710.50	0.94	
		710.82	0.96	
		711.15	0.95	
		711.47	0.95	
		711.79	0.95	
		712.12	0.95	
		712.44	0.95	
		712.77	0.95	
		713.09	0.94	
		713.42	0.95	
		713.74	0.94	
		714.07	0.94	
		714.39	0.95	
		714.72	0.95	
		715.04	0.94	
		715.36	0.95	
		715.69	0.96	
		716.01	0.95	
		716.34	0.95	
		716.66	0.95	
		716.99	0.95	
		717.31	0.95	
		717.63	0.95	
		717.96	0.96	
		718.28	0.94	
		718.60	0.94	
		718.93	0.93	
		719.25	0.94	
		719.58	0.95	
		719.90	0.96	
		720.22	0.94	
		720.55	0.95	
		720.87	0.95	
		721.19	0.95	
		721.52	0.94	
		721.84	0.95	
		722.16	0.94	
		722.49	0.94	
		722.81	0.95	
		723.13	0.93	
		723.46	0.95	
		723.78	0.93	
		724.10	0.95	
		724.43	0.94	
		724.75	0.93	
		725.07	0.95	
		725.39	0.94	
		725.72	0.94	
		726.04	0.94	
		726.36	0.94	
		726.68	0.94	
		727.01	0.94	
		727.33	0.94	
		727.65	0.95	
		727.97	0.94	
		728.30	0.94	
		728.62	0.94	
		728.94	0.94	
		729.26	0.94	
		729.59	0.94	
		729.91	0.94	
		730.23	0.94	
		730.55	0.95	
		730.87	0.94	
		731.20	0.94	
		731.52	0.94	
		731.84	0.95	
		732.16	0.95	
		732.48	0.95	
		732.81	0.94	
		733.13	0.94	
		733.45	0.95	
		733.77	0.94	
		734.09	0.94	
		734.41	0.94	
		734.73	0.95	
		735.06	0.94	
		735.38	0.95	
		735.70	0.94	
		736.02	0.94	
		736.34	0.95	
		736.66	0.95	
		736.98	0.95	
		737.30	0.95	
		737.62	0.94	
		737.95	0.95	
		738.27	0.95	
		738.59	0.95	
		738.91	0.96	
		739.23	0.95	
		739.55	0.94	
		739.87	0.95	
		740.19	0.94	
		740.51	0.95	
		740.83	0.94	
		741.15	0.94	
		741.47	0.95	
		741.79	0.94	
		742.11	0.95	
		742.43	0.94	
		742.75	0.94	
		743.07	0.95	
		743.39	0.95	
		743.71	0.94	
		744.03	0.94	
		744.35	0.95	
		744.67	0.95	
		744.99	0.95	
		745.31	0.94	
		745.63	0.95	
		745.95	0.95	
		746.27	0.95	
		746.59	0.95	
		746.91	0.94	
		747.23	0.95	
		747.55	0.96	
		747.87	0.96	
		748.19	0.94	
		748.51	0.95	
		748.83	0.94	
		749.15	0.95	
		749.47	0.94	
		749.79	0.94	
		750.10	0.94	
		750.42	0.95	
		750.74	0.94	
		751.06	0.94	
		751.38	0.94	
		751.70	0.95	
		752.02	0.94	
		752.34	0.95	
		752.66	0.94	
		752.97	0.95	
		753.29	0.95	
		753.61	0.95	
		753.93	0.96	
		754.25	0.95	
		754.57	0.95	
		754.88	0.94	
		755.20	0.95	
		755.52	0.96	
		755.84	0.96	
		756.16	0.95	
		756.48	0.95	
		756.79	0.96	
		757.11	0.94	
		757.43	0.92	
		757.75	0.94	
		758.06	0.95	
		758.38	0.94	
		758.70	0.95	
		759.02	0.95	
		759.34	0.94	
		759.65	0.95	
		759.97	0.94	
		760.29	0.95	
		760.61	0.95	
		760.92	0.95	
		761.24	0.94	
		761.56	0.95	
		761.88	0.96	
		762.19	0.94	
		762.51	0.95	
		762.83	0.95	
		763.14	0.97	
		763.46	0.94	
		763.78	0.94	
		764.09	0.94	
		764.41	0.95	
		764.73	0.95	
		765.04	0.95	
		765.36	0.95	
		765.68	0.96	
		765.99	0.95	
		766.31	0.95	
		766.63	0.96	
		766.94	0.96	
		767.26	0.95	
		767.58	0.94	
		767.89	0.94	
		768.21	0.95	
		768.53	0.95	
		768.84	0.94	
		769.16	0.94	
		769.47	0.94	
		769.79	0.94	
		770.11	0.94	
		770.42	0.96	
		770.74	0.95	
		771.05	0.94	
		771.37	0.95	
		771.68	0.94	
		772.00	0.95	
		772.32	0.94	
		772.63	0.94	
		772.95	0.95	
		773.26	0.95	
		773.58	0.95	
		773.89	0.93	
		774.21	0.94	
		774.52	0.94	
		774.84	0.94	
		775.15	0.95	
		775.47	0.93	
		775.78	0.95	
		776.10	0.94	
		776.41	0.94	
		776.73	0.95	
		777.04	0.94	
		777.36	0.94	
		777.67	0.95	
		777.99	0.96	
		778.30	0.94	
		778.62	0.94	
		778.93	0.93	
		779.25	0.94	
		779.56	0.95	
		779.88	0.94	
		780.19	0.97	
		780.50	0.94	
		780.82	0.93	
		781.13	0.95	
